#!/bin/bash
gmt gmtset PS_MEDIA letter
gmt gmtset PROJ_LENGTH_UNIT cm
gmt gmtset PS_PAGE_ORIENTATION portrait
psfile=mangyshlak4.1_tt1_summary.ps
projection=-JX12/16
region=-R0/180/0/1500
gmt psbasemap $region $projection -Bxa30f10+l'Epicentral Distance (deg)' -Bya200f100+l'Travel Time (s)' -BWeSn+t'Summary Travel Times mangyshlak4.1' -K > $psfile
gmt psxy -: -R $projection -Wthick,red -K -O << END >> $psfile
   325.387    25.000
   329.931    25.500
   334.464    26.000
   338.986    26.500
   343.496    27.000
   347.989    27.500
   352.463    28.000
   356.921    28.500
   361.367    29.000
   365.804    29.500
   370.233    30.000
   374.655    30.500
   379.069    31.000
   383.475    31.500
   387.873    32.000
   392.262    32.500
   396.640    33.000
   401.005    33.500
   405.357    34.000
   409.694    34.500
   414.016    35.000
   418.323    35.500
   422.614    36.000
   426.891    36.500
   431.152    37.000
   435.397    37.500
   439.627    38.000
   443.840    38.500
   448.037    39.000
   452.216    39.500
   456.379    40.000
   460.525    40.500
   464.654    41.000
   468.765    41.500
   472.860    42.000
   476.937    42.500
   480.997    43.000
   485.040    43.500
   489.064    44.000
   493.071    44.500
   497.060    45.000
   501.031    45.500
   504.984    46.000
   508.920    46.500
   512.837    47.000
   516.735    47.500
   520.616    48.000
   524.479    48.500
   528.323    49.000
   532.150    49.500
   535.958    50.000
   539.747    50.500
   543.519    51.000
   547.272    51.500
   551.007    52.000
   554.724    52.500
   558.423    53.000
   562.105    53.500
   565.768    54.000
   569.413    54.500
   573.040    55.000
   576.648    55.500
   580.238    56.000
   583.809    56.500
   587.362    57.000
   590.896    57.500
   594.413    58.000
   597.912    58.500
   601.392    59.000
   604.854    59.500
   608.298    60.000
   611.723    60.500
   615.130    61.000
   618.518    61.500
   621.888    62.000
   625.240    62.500
   628.574    63.000
   631.891    63.500
   635.189    64.000
   638.469    64.500
   641.732    65.000
   644.977    65.500
   648.203    66.000
   651.412    66.500
   654.602    67.000
   657.774    67.500
   660.928    68.000
   664.064    68.500
   667.182    69.000
   670.281    69.500
   673.363    70.000
   676.426    70.500
   679.471    71.000
   682.498    71.500
   685.507    72.000
   688.498    72.500
   691.470    73.000
   694.424    73.500
   697.358    74.000
   700.275    74.500
   703.172    75.000
   706.051    75.500
   708.912    76.000
   711.754    76.500
   714.578    77.000
   717.384    77.500
   720.173    78.000
   722.942    78.500
   725.694    79.000
   728.428    79.500
   731.142    80.000
   733.838    80.500
   736.514    81.000
   739.172    81.500
   741.809    82.000
   744.429    82.500
   747.029    83.000
   749.611    83.500
   752.173    84.000
   754.715    84.500
   757.236    85.000
   759.737    85.500
   762.220    86.000
   764.685    86.500
   767.132    87.000
   769.557    87.500
   771.947    88.000
   774.314    88.500
   776.669    89.000
   779.015    89.500
   781.353    90.000
   783.685    90.500
   786.010    91.000
   788.329    91.500
   790.644    92.000
   792.955    92.500
   795.263    93.000
   797.567    93.500
   799.867    94.000
   802.163    94.500
   804.453    95.000
   806.738    95.500
   809.016    96.000
   811.288    96.500
   813.554    97.000
   815.813    97.500
   818.064    98.000
   820.309    98.500
   822.546    99.000
   824.775    99.500
END
gmt psxy -: -R $projection -Wthick,red -K -O << END >> $psfile
  1123.829   115.500
  1124.791   116.000
  1125.753   116.500
  1126.715   117.000
  1127.677   117.500
  1128.639   118.000
  1129.601   118.500
  1130.563   119.000
  1131.524   119.500
  1132.485   120.000
  1133.446   120.500
  1134.407   121.000
  1135.368   121.500
  1136.328   122.000
  1137.288   122.500
  1138.248   123.000
  1139.207   123.500
  1140.165   124.000
  1141.124   124.500
  1142.081   125.000
  1143.038   125.500
  1143.995   126.000
  1144.951   126.500
  1145.906   127.000
  1146.860   127.500
  1147.814   128.000
  1148.767   128.500
  1149.719   129.000
  1150.670   129.500
  1151.620   130.000
  1152.568   130.500
  1153.516   131.000
  1154.462   131.500
  1155.407   132.000
  1156.351   132.500
  1157.293   133.000
  1158.234   133.500
  1159.173   134.000
  1160.110   134.500
  1161.045   135.000
  1161.979   135.500
  1162.910   136.000
  1163.839   136.500
  1164.765   137.000
  1165.689   137.500
  1166.610   138.000
  1167.529   138.500
  1168.445   139.000
  1169.358   139.500
  1170.267   140.000
  1171.173   140.500
  1172.076   141.000
  1172.975   141.500
  1173.870   142.000
  1174.760   142.500
  1175.646   143.000
  1176.527   143.500
  1177.404   144.000
  1178.275   144.500
  1179.141   145.000
  1180.001   145.500
  1180.855   146.000
  1181.702   146.500
  1182.544   147.000
  1183.378   147.500
  1184.205   148.000
  1185.025   148.500
  1185.836   149.000
  1186.639   149.500
  1187.432   150.000
  1188.216   150.500
  1188.990   151.000
  1189.753   151.500
  1190.507   152.000
  1191.250   152.500
  1191.984   153.000
  1192.707   153.500
  1193.420   154.000
  1194.121   154.500
  1194.812   155.000
  1195.491   155.500
  1196.158   156.000
  1196.814   156.500
  1197.458   157.000
  1198.089   157.500
  1198.709   158.000
  1199.316   158.500
  1199.910   159.000
  1200.491   159.500
  1201.060   160.000
  1201.616   160.500
  1202.158   161.000
  1202.688   161.500
  1203.204   162.000
  1203.707   162.500
  1204.197   163.000
  1204.673   163.500
  1205.135   164.000
  1205.584   164.500
  1206.018   165.000
  1206.439   165.500
  1206.846   166.000
  1207.240   166.500
  1207.619   167.000
  1207.984   167.500
  1208.335   168.000
  1208.672   168.500
  1208.995   169.000
  1209.304   169.500
  1209.599   170.000
  1209.879   170.500
  1210.145   171.000
  1210.397   171.500
  1210.635   172.000
  1210.858   172.500
  1211.067   173.000
  1211.262   173.500
  1211.442   174.000
  1211.608   174.500
  1211.759   175.000
  1211.896   175.500
  1212.019   176.000
  1212.127   176.500
  1212.221   177.000
  1212.301   177.500
  1212.366   178.000
  1212.416   178.500
  1212.452   179.000
  1212.474   179.500
  1212.481   180.000
END
gmt psxy -: -R $projection -Wthick,red -K -O << END >> $psfile
   994.780     0.500
   994.788     1.000
   994.802     1.500
   994.822     2.000
   994.847     2.500
   994.878     3.000
   994.914     3.500
   994.956     4.000
   995.004     4.500
   995.057     5.000
   995.116     5.500
   995.180     6.000
   995.250     6.500
   995.325     7.000
   995.406     7.500
   995.493     8.000
   995.585     8.500
   995.683     9.000
   995.786     9.500
   995.895    10.000
   996.009    10.500
   996.129    11.000
   996.255    11.500
   996.386    12.000
   996.523    12.500
   996.665    13.000
   996.812    13.500
   996.966    14.000
   997.124    14.500
   997.289    15.000
   997.458    15.500
   997.634    16.000
   997.814    16.500
   998.001    17.000
   998.192    17.500
   998.390    18.000
   998.592    18.500
   998.800    19.000
   999.014    19.500
   999.233    20.000
   999.458    20.500
   999.687    21.000
   999.923    21.500
  1000.164    22.000
  1000.410    22.500
  1000.661    23.000
  1000.918    23.500
  1001.181    24.000
  1001.448    24.500
  1001.721    25.000
  1002.000    25.500
  1002.284    26.000
  1002.573    26.500
  1002.867    27.000
  1003.167    27.500
  1003.472    28.000
  1003.782    28.500
  1004.098    29.000
  1004.419    29.500
  1004.745    30.000
  1005.077    30.500
  1005.413    31.000
  1005.755    31.500
  1006.102    32.000
  1006.455    32.500
  1006.812    33.000
  1007.175    33.500
  1007.543    34.000
  1007.916    34.500
  1008.294    35.000
  1008.678    35.500
  1009.066    36.000
  1009.460    36.500
  1009.858    37.000
  1010.262    37.500
  1010.671    38.000
  1011.085    38.500
  1011.504    39.000
  1011.927    39.500
  1012.357    40.000
  1012.790    40.500
  1013.229    41.000
  1013.673    41.500
  1014.122    42.000
  1014.576    42.500
  1015.035    43.000
  1015.498    43.500
  1015.967    44.000
  1016.440    44.500
  1016.918    45.000
  1017.402    45.500
  1017.890    46.000
  1018.382    46.500
  1018.880    47.000
  1019.382    47.500
  1019.889    48.000
  1020.401    48.500
  1020.918    49.000
  1021.439    49.500
  1021.965    50.000
  1022.496    50.500
  1023.031    51.000
  1023.571    51.500
  1024.116    52.000
  1024.665    52.500
  1025.219    53.000
  1025.778    53.500
  1026.341    54.000
  1026.908    54.500
  1027.480    55.000
  1028.057    55.500
  1028.638    56.000
  1029.224    56.500
  1029.814    57.000
  1030.408    57.500
  1031.007    58.000
  1031.610    58.500
  1032.218    59.000
  1032.830    59.500
  1033.446    60.000
  1034.067    60.500
  1034.692    61.000
  1035.321    61.500
  1035.955    62.000
  1036.593    62.500
  1037.234    63.000
  1037.881    63.500
  1038.531    64.000
  1039.186    64.500
  1039.844    65.000
  1040.507    65.500
  1041.174    66.000
  1041.845    66.500
  1042.520    67.000
  1043.199    67.500
  1043.882    68.000
  1044.569    68.500
  1045.260    69.000
  1045.955    69.500
  1046.654    70.000
  1047.357    70.500
  1048.064    71.000
  1048.775    71.500
  1049.489    72.000
  1050.208    72.500
  1050.930    73.000
  1051.656    73.500
  1052.385    74.000
  1053.119    74.500
  1053.856    75.000
  1054.597    75.500
  1055.341    76.000
  1056.090    76.500
  1056.842    77.000
  1057.597    77.500
  1058.356    78.000
  1059.119    78.500
  1059.885    79.000
  1060.655    79.500
  1061.428    80.000
  1062.204    80.500
  1062.985    81.000
  1063.768    81.500
  1064.555    82.000
  1065.345    82.500
  1066.139    83.000
  1066.936    83.500
  1067.737    84.000
  1068.540    84.500
  1069.347    85.000
  1070.157    85.500
  1070.971    86.000
  1071.788    86.500
  1072.607    87.000
  1073.430    87.500
  1074.256    88.000
  1075.086    88.500
  1075.918    89.000
  1076.753    89.500
  1077.592    90.000
  1078.433    90.500
  1079.278    91.000
  1080.125    91.500
  1080.976    92.000
  1081.829    92.500
  1082.685    93.000
  1083.544    93.500
  1084.406    94.000
  1085.271    94.500
  1086.138    95.000
  1087.009    95.500
  1087.882    96.000
  1088.758    96.500
  1089.636    97.000
  1090.517    97.500
  1091.401    98.000
  1092.288    98.500
  1093.177    99.000
  1094.069    99.500
  1094.963   100.000
  1095.860   100.500
  1096.759   101.000
  1097.661   101.500
  1098.565   102.000
  1099.472   102.500
  1100.381   103.000
  1101.293   103.500
  1102.207   104.000
  1103.123   104.500
  1104.042   105.000
  1104.963   105.500
  1105.886   106.000
  1106.812   106.500
  1107.740   107.000
  1108.670   107.500
  1109.602   108.000
  1110.536   108.500
  1111.472   109.000
  1112.411   109.500
  1113.352   110.000
  1114.294   110.500
  1115.239   111.000
  1116.186   111.500
  1117.134   112.000
  1118.085   112.500
  1119.038   113.000
  1119.992   113.500
  1120.949   114.000
  1121.907   114.500
  1122.867   115.000
  1123.829   115.500
  1124.793   116.000
  1125.759   116.500
  1126.726   117.000
  1127.695   117.500
  1128.666   118.000
  1129.638   118.500
  1130.612   119.000
  1131.588   119.500
  1132.565   120.000
  1133.544   120.500
  1134.524   121.000
  1135.506   121.500
  1136.490   122.000
  1137.475   122.500
  1138.461   123.000
  1139.449   123.500
  1140.438   124.000
  1141.429   124.500
  1142.421   125.000
  1143.415   125.500
  1144.409   126.000
  1145.405   126.500
  1146.403   127.000
  1147.401   127.500
  1148.401   128.000
  1149.402   128.500
  1150.404   129.000
  1151.407   129.500
  1152.412   130.000
  1153.417   130.500
  1154.424   131.000
  1155.432   131.500
  1156.441   132.000
  1157.450   132.500
  1158.461   133.000
  1159.473   133.500
  1160.485   134.000
  1161.499   134.500
  1162.514   135.000
  1163.529   135.500
  1164.545   136.000
  1165.562   136.500
  1166.580   137.000
  1167.599   137.500
  1168.618   138.000
  1169.639   138.500
  1170.660   139.000
  1171.681   139.500
  1172.703   140.000
  1173.726   140.500
  1174.750   141.000
  1175.774   141.500
  1176.799   142.000
  1177.824   142.500
  1178.850   143.000
  1179.877   143.500
  1180.904   144.000
  1181.931   144.500
  1182.959   145.000
  1183.987   145.500
  1185.016   146.000
  1186.045   146.500
  1187.074   147.000
  1188.104   147.500
  1189.135   148.000
  1190.165   148.500
  1191.196   149.000
  1192.227   149.500
  1193.258   150.000
  1194.290   150.500
  1195.321   151.000
  1196.353   151.500
  1197.385   152.000
  1198.417   152.500
  1199.450   153.000
  1200.482   153.500
  1201.515   154.000
  1202.547   154.500
  1203.580   155.000
  1204.612   155.500
END
gmt psxy -: -R $projection -Wthick,red -K -O << END >> $psfile
  1178.429   145.000
  1180.248   145.500
  1182.127   146.000
  1184.043   146.500
  1185.987   147.000
  1187.954   147.500
  1189.942   148.000
  1191.947   148.500
  1193.967   149.000
  1196.002   149.500
  1198.049   150.000
  1200.108   150.500
  1202.178   151.000
  1204.257   151.500
  1206.345   152.000
  1208.442   152.500
  1210.546   153.000
  1212.658   153.500
  1214.777   154.000
  1216.902   154.500
  1219.034   155.000
  1221.171   155.500
  1223.313   156.000
  1225.461   156.500
  1227.613   157.000
  1229.770   157.500
  1231.931   158.000
  1234.096   158.500
  1236.265   159.000
  1238.438   159.500
  1240.614   160.000
  1242.793   160.500
  1244.976   161.000
  1247.161   161.500
  1249.349   162.000
  1251.540   162.500
  1253.733   163.000
  1255.928   163.500
  1258.126   164.000
  1260.325   164.500
  1262.527   165.000
  1264.730   165.500
  1266.935   166.000
  1269.142   166.500
  1271.350   167.000
  1273.559   167.500
  1275.770   168.000
  1277.982   168.500
  1280.196   169.000
  1282.410   169.500
  1284.625   170.000
  1286.842   170.500
  1289.059   171.000
  1291.277   171.500
  1293.496   172.000
  1295.715   172.500
  1297.935   173.000
  1300.156   173.500
  1302.376   174.000
  1304.598   174.500
  1306.820   175.000
  1309.042   175.500
  1311.264   176.000
  1313.486   176.500
  1315.709   177.000
  1317.932   177.500
  1320.155   178.000
END
gmt psxy -: -R $projection -Wthick,red -K -O << END >> $psfile
  1178.428   145.000
  1180.058   145.500
  1181.608   146.000
  1183.099   146.500
  1184.540   147.000
  1185.935   147.500
  1187.288   148.000
  1188.601   148.500
  1189.880   149.000
  1191.129   149.500
  1192.353   150.000
  1193.554   150.500
  1194.734   151.000
  1195.895   151.500
  1197.038   152.000
  1198.163   152.500
  1199.272   153.000
  1200.367   153.500
  1201.448   154.000
  1202.517   154.500
  1203.572   155.000
  1204.612   155.500
END
gmt psxy -: -R $projection -Wthick,red -K -O << END >> $psfile
   511.655     0.500
   511.691     1.000
   511.751     1.500
   511.835     2.000
   511.943     2.500
   512.075     3.000
   512.231     3.500
   512.411     4.000
   512.614     4.500
   512.842     5.000
   513.093     5.500
   513.368     6.000
   513.666     6.500
   513.989     7.000
   514.334     7.500
   514.704     8.000
   515.096     8.500
   515.512     9.000
   515.951     9.500
   516.414    10.000
   516.899    10.500
   517.408    11.000
   517.939    11.500
   518.494    12.000
   519.071    12.500
   519.670    13.000
   520.292    13.500
   520.937    14.000
   521.603    14.500
   522.292    15.000
   523.003    15.500
   523.736    16.000
   524.490    16.500
   525.266    17.000
   526.064    17.500
   526.883    18.000
   527.723    18.500
   528.584    19.000
   529.466    19.500
   530.369    20.000
   531.292    20.500
   532.236    21.000
   533.201    21.500
   534.185    22.000
   535.189    22.500
   536.214    23.000
   537.257    23.500
   538.321    24.000
   539.403    24.500
   540.505    25.000
   541.626    25.500
   542.765    26.000
   543.923    26.500
   545.100    27.000
   546.295    27.500
   547.508    28.000
   548.739    28.500
   549.987    29.000
   551.253    29.500
   552.537    30.000
   553.837    30.500
   555.155    31.000
   556.489    31.500
   557.840    32.000
   559.208    32.500
   560.592    33.000
   561.992    33.500
   563.407    34.000
   564.839    34.500
   566.286    35.000
   567.748    35.500
   569.225    36.000
   570.718    36.500
   572.225    37.000
   573.746    37.500
   575.283    38.000
   576.833    38.500
   578.397    39.000
   579.975    39.500
   581.567    40.000
   583.172    40.500
   584.791    41.000
   586.422    41.500
   588.067    42.000
   589.724    42.500
   591.394    43.000
   593.076    43.500
   594.771    44.000
   596.477    44.500
   598.196    45.000
   599.926    45.500
   601.667    46.000
   603.420    46.500
   605.184    47.000
   606.959    47.500
   608.744    48.000
   610.541    48.500
   612.347    49.000
   614.165    49.500
   615.992    50.000
   617.829    50.500
   619.676    51.000
   621.532    51.500
   623.399    52.000
   625.274    52.500
   627.158    53.000
   629.052    53.500
   630.954    54.000
   632.865    54.500
   634.785    55.000
   636.713    55.500
   638.649    56.000
   640.593    56.500
   642.545    57.000
   644.505    57.500
   646.473    58.000
   648.448    58.500
   650.430    59.000
   652.420    59.500
   654.416    60.000
   656.420    60.500
   658.430    61.000
   660.447    61.500
   662.470    62.000
   664.500    62.500
   666.536    63.000
   668.578    63.500
   670.626    64.000
   672.680    64.500
   674.740    65.000
   676.805    65.500
   678.876    66.000
   680.952    66.500
   683.033    67.000
   685.119    67.500
   687.211    68.000
   689.307    68.500
   691.408    69.000
   693.513    69.500
   695.624    70.000
   697.738    70.500
   699.857    71.000
   701.980    71.500
   704.107    72.000
   706.238    72.500
   708.373    73.000
   710.512    73.500
   712.654    74.000
   714.800    74.500
   716.949    75.000
   719.102    75.500
   721.258    76.000
   723.417    76.500
   725.579    77.000
   727.745    77.500
   729.913    78.000
   732.084    78.500
   734.257    79.000
   736.434    79.500
   738.612    80.000
   740.794    80.500
   742.977    81.000
   745.163    81.500
   747.351    82.000
   749.541    82.500
   751.734    83.000
   753.928    83.500
   756.124    84.000
   758.322    84.500
   760.521    85.000
   762.723    85.500
   764.926    86.000
   767.130    86.500
   769.336    87.000
   771.543    87.500
   773.752    88.000
   775.962    88.500
   778.173    89.000
   780.385    89.500
   782.598    90.000
   784.812    90.500
   787.028    91.000
   789.244    91.500
   791.460    92.000
   793.678    92.500
   795.896    93.000
   798.115    93.500
   800.335    94.000
   802.555    94.500
   804.776    95.000
   806.997    95.500
   809.218    96.000
   811.440    96.500
   813.662    97.000
   815.884    97.500
   818.107    98.000
   820.330    98.500
   822.552    99.000
   824.775    99.500
END
gmt psxy -: -R $projection -Wthick,red -K -O << END >> $psfile
   421.107    28.500
   426.664    29.000
   432.221    29.500
   437.777    30.000
   443.333    30.500
   448.886    31.000
   454.439    31.500
   459.989    32.000
   465.536    32.500
   471.081    33.000
   476.623    33.500
   482.161    34.000
   487.695    34.500
   493.224    35.000
   498.749    35.500
   504.267    36.000
   509.780    36.500
   515.287    37.000
   520.786    37.500
   526.278    38.000
   531.761    38.500
   537.236    39.000
   542.701    39.500
   548.156    40.000
   553.601    40.500
   559.035    41.000
   564.457    41.500
   569.867    42.000
   575.264    42.500
   580.648    43.000
   586.018    43.500
   591.374    44.000
   596.715    44.500
   602.040    45.000
